 N1.562O.42C.0003Ar.0094 Pressure=30. Path=1. cm
 Photon Energy (eV), Transmission
    10.000      0.91492E-04
    59.980      0.20000E-02
    109.96      0.15268    
    159.94      0.43774    
    209.92      0.65836    
    259.90      0.75820    
    309.88      0.83659    
    359.86      0.88797    
    409.84      0.88657    
    459.82      0.41805    
    509.80      0.50318    
    559.78      0.46803    
    609.76      0.54150    
    659.74      0.60510    
    709.72      0.65821    
    759.70      0.70333    
    809.68      0.74253    
    859.66      0.77566    
    909.64      0.80294    
    959.62      0.82648    
    1009.6      0.84672    
    1059.6      0.86397    
    1109.6      0.87892    
    1159.5      0.89176    
    1209.5      0.90286    
    1259.5      0.91254    
    1309.5      0.92113    
    1359.5      0.92864    
    1409.4      0.93523    
    1459.4      0.94103    
    1509.4      0.94618    
    1559.4      0.95078    
    1609.4      0.95487    
    1659.3      0.95851    
    1709.3      0.96177    
    1759.3      0.96471    
    1809.3      0.96738    
    1859.3      0.96978    
    1909.2      0.97196    
    1959.2      0.97392    
    2009.2      0.97571    
    2059.2      0.97734    
    2109.2      0.97883    
    2159.1      0.98020    
    2209.1      0.98145    
    2259.1      0.98260    
    2309.1      0.98366    
    2359.1      0.98464    
    2409.0      0.98554    
    2459.0      0.98637    
    2509.0      0.98715    
    2559.0      0.98786    
    2609.0      0.98852    
    2658.9      0.98914    
    2708.9      0.98971    
    2758.9      0.99025    
    2808.9      0.99075    
    2858.9      0.99121    
    2908.8      0.99165    
    2958.8      0.99206    
    3008.8      0.99244    
    3058.8      0.99280    
    3108.8      0.99313    
    3158.7      0.99345    
    3208.7      0.99299    
    3258.7      0.99330    
    3308.7      0.99359    
    3358.7      0.99386    
    3408.6      0.99412    
    3458.6      0.99436    
    3508.6      0.99460    
    3558.6      0.99482    
    3608.6      0.99502    
    3658.5      0.99522    
    3708.5      0.99541    
    3758.5      0.99559    
    3808.5      0.99575    
    3858.5      0.99591    
    3908.4      0.99607    
    3958.4      0.99621    
    4008.4      0.99635    
    4058.4      0.99648    
    4108.4      0.99661    
    4158.3      0.99673    
    4208.3      0.99684    
    4258.3      0.99695    
    4308.3      0.99706    
    4358.3      0.99716    
    4408.2      0.99725    
    4458.2      0.99734    
    4508.2      0.99743    
    4558.2      0.99751    
    4608.2      0.99759    
    4658.1      0.99767    
    4708.1      0.99774    
    4758.1      0.99781    
    4808.1      0.99788    
    4858.1      0.99795    
    4908.0      0.99801    
    4958.0      0.99807    
    5008.0      0.99813    
    5058.0      0.99818    
    5108.0      0.99823    
    5157.9      0.99828    
    5207.9      0.99833    
    5257.9      0.99838    
    5307.9      0.99843    
    5357.9      0.99847    
    5407.8      0.99851    
    5457.8      0.99855    
    5507.8      0.99859    
    5557.8      0.99863    
    5607.8      0.99867    
    5657.7      0.99870    
    5707.7      0.99874    
    5757.7      0.99877    
    5807.7      0.99880    
    5857.7      0.99883    
    5907.6      0.99886    
    5957.6      0.99889    
    6007.6      0.99892    
    6057.6      0.99895    
    6107.6      0.99897    
    6157.5      0.99900    
    6207.5      0.99902    
    6257.5      0.99904    
    6307.5      0.99907    
    6357.5      0.99909    
    6407.4      0.99911    
    6457.4      0.99913    
    6507.4      0.99915    
    6557.4      0.99917    
    6607.4      0.99919    
    6657.3      0.99921    
    6707.3      0.99923    
    6757.3      0.99924    
    6807.3      0.99926    
    6857.3      0.99928    
    6907.2      0.99929    
    6957.2      0.99931    
    7007.2      0.99932    
    7057.2      0.99934    
    7107.2      0.99935    
    7157.1      0.99937    
    7207.1      0.99938    
    7257.1      0.99939    
    7307.1      0.99940    
    7357.1      0.99942    
    7407.0      0.99943    
    7457.0      0.99944    
    7507.0      0.99945    
    7557.0      0.99946    
    7607.0      0.99947    
    7656.9      0.99948    
    7706.9      0.99949    
    7756.9      0.99950    
    7806.9      0.99951    
    7856.9      0.99952    
    7906.8      0.99953    
    7956.8      0.99954    
    8006.8      0.99955    
    8056.8      0.99956    
    8106.8      0.99957    
    8156.7      0.99957    
    8206.7      0.99958    
    8256.7      0.99959    
    8306.7      0.99960    
    8356.7      0.99960    
    8406.6      0.99961    
    8456.6      0.99962    
    8506.6      0.99963    
    8556.6      0.99963    
    8606.6      0.99964    
    8656.5      0.99965    
    8706.5      0.99965    
    8756.5      0.99966    
    8806.5      0.99966    
    8856.5      0.99967    
    8906.4      0.99967    
    8956.4      0.99968    
    9006.4      0.99969    
    9056.4      0.99969    
    9106.4      0.99970    
    9156.3      0.99970    
    9206.3      0.99971    
    9256.3      0.99971    
    9306.3      0.99972    
    9356.3      0.99972    
    9406.2      0.99972    
    9456.2      0.99973    
    9506.2      0.99973    
    9556.2      0.99974    
    9606.2      0.99974    
    9656.1      0.99975    
    9706.1      0.99975    
    9756.1      0.99975    
    9806.1      0.99976    
    9856.1      0.99976    
    9906.0      0.99977    
    9956.0      0.99977    
    10006.      0.99977    
    10056.      0.99978    
    10106.      0.99978    
    10156.      0.99978    
    10206.      0.99979    
    10256.      0.99979    
    10306.      0.99979    
    10356.      0.99979    
    10406.      0.99980    
    10456.      0.99980    
    10506.      0.99980    
    10556.      0.99981    
    10606.      0.99981    
    10656.      0.99981    
    10706.      0.99981    
    10756.      0.99982    
    10806.      0.99982    
    10856.      0.99982    
    10906.      0.99982    
    10956.      0.99983    
    11006.      0.99983    
    11056.      0.99983    
    11106.      0.99983    
    11156.      0.99984    
    11206.      0.99984    
    11256.      0.99984    
    11305.      0.99984    
    11355.      0.99984    
    11405.      0.99985    
    11455.      0.99985    
    11505.      0.99985    
    11555.      0.99985    
    11605.      0.99985    
    11655.      0.99986    
    11705.      0.99986    
    11755.      0.99986    
    11805.      0.99986    
    11855.      0.99986    
    11905.      0.99987    
    11955.      0.99987    
    12005.      0.99987    
    12055.      0.99987    
    12105.      0.99987    
    12155.      0.99987    
    12205.      0.99988    
    12255.      0.99988    
    12305.      0.99988    
    12355.      0.99988    
    12405.      0.99988    
    12455.      0.99988    
    12505.      0.99988    
    12555.      0.99989    
    12605.      0.99989    
    12655.      0.99989    
    12705.      0.99989    
    12755.      0.99989    
    12805.      0.99989    
    12855.      0.99989    
    12905.      0.99989    
    12955.      0.99990    
    13005.      0.99990    
    13055.      0.99990    
    13105.      0.99990    
    13155.      0.99990    
    13205.      0.99990    
    13255.      0.99990    
    13305.      0.99990    
    13355.      0.99990    
    13405.      0.99991    
    13455.      0.99991    
    13505.      0.99991    
    13555.      0.99991    
    13605.      0.99991    
    13655.      0.99991    
    13705.      0.99991    
    13755.      0.99991    
    13804.      0.99991    
    13854.      0.99991    
    13904.      0.99992    
    13954.      0.99992    
    14004.      0.99992    
    14054.      0.99992    
    14104.      0.99992    
    14154.      0.99992    
    14204.      0.99992    
    14254.      0.99992    
    14304.      0.99992    
    14354.      0.99992    
    14404.      0.99992    
    14454.      0.99992    
    14504.      0.99992    
    14554.      0.99993    
    14604.      0.99993    
    14654.      0.99993    
    14704.      0.99993    
    14754.      0.99993    
    14804.      0.99993    
    14854.      0.99993    
    14904.      0.99993    
    14954.      0.99993    
    15004.      0.99993    
    15054.      0.99993    
    15104.      0.99993    
    15154.      0.99993    
    15204.      0.99993    
    15254.      0.99993    
    15304.      0.99994    
    15354.      0.99994    
    15404.      0.99994    
    15454.      0.99994    
    15504.      0.99994    
    15554.      0.99994    
    15604.      0.99994    
    15654.      0.99994    
    15704.      0.99994    
    15754.      0.99994    
    15804.      0.99994    
    15854.      0.99994    
    15904.      0.99994    
    15954.      0.99994    
    16004.      0.99994    
    16054.      0.99994    
    16104.      0.99994    
    16154.      0.99994    
    16204.      0.99995    
    16253.      0.99995    
    16303.      0.99995    
    16353.      0.99995    
    16403.      0.99995    
    16453.      0.99995    
    16503.      0.99995    
    16553.      0.99995    
    16603.      0.99995    
    16653.      0.99995    
    16703.      0.99995    
    16753.      0.99995    
    16803.      0.99995    
    16853.      0.99995    
    16903.      0.99995    
    16953.      0.99995    
    17003.      0.99995    
    17053.      0.99995    
    17103.      0.99995    
    17153.      0.99995    
    17203.      0.99995    
    17253.      0.99995    
    17303.      0.99995    
    17353.      0.99995    
    17403.      0.99995    
    17453.      0.99996    
    17503.      0.99996    
    17553.      0.99996    
    17603.      0.99996    
    17653.      0.99996    
    17703.      0.99996    
    17753.      0.99996    
    17803.      0.99996    
    17853.      0.99996    
    17903.      0.99996    
    17953.      0.99996    
    18003.      0.99996    
    18053.      0.99996    
    18103.      0.99996    
    18153.      0.99996    
    18203.      0.99996    
    18253.      0.99996    
    18303.      0.99996    
    18353.      0.99996    
    18403.      0.99996    
    18453.      0.99996    
    18503.      0.99996    
    18553.      0.99996    
    18603.      0.99996    
    18653.      0.99996    
    18703.      0.99996    
    18753.      0.99996    
    18802.      0.99996    
    18852.      0.99996    
    18902.      0.99996    
    18952.      0.99996    
    19002.      0.99996    
    19052.      0.99996    
    19102.      0.99996    
    19152.      0.99996    
    19202.      0.99997    
    19252.      0.99997    
    19302.      0.99997    
    19352.      0.99997    
    19402.      0.99997    
    19452.      0.99997    
    19502.      0.99997    
    19552.      0.99997    
    19602.      0.99997    
    19652.      0.99997    
    19702.      0.99997    
    19752.      0.99997    
    19802.      0.99997    
    19852.      0.99997    
    19902.      0.99997    
    19952.      0.99997    
    20002.      0.99997    
    20052.      0.99997    
    20102.      0.99997    
    20152.      0.99997    
    20202.      0.99997    
    20252.      0.99997    
    20302.      0.99997    
    20352.      0.99997    
    20402.      0.99997    
    20452.      0.99997    
    20502.      0.99997    
    20552.      0.99997    
    20602.      0.99997    
    20652.      0.99997    
    20702.      0.99997    
    20752.      0.99997    
    20802.      0.99997    
    20852.      0.99997    
    20902.      0.99997    
    20952.      0.99997    
    21002.      0.99997    
    21052.      0.99997    
    21102.      0.99997    
    21152.      0.99997    
    21202.      0.99997    
    21252.      0.99997    
    21301.      0.99997    
    21351.      0.99997    
    21401.      0.99997    
    21451.      0.99997    
    21501.      0.99997    
    21551.      0.99997    
    21601.      0.99997    
    21651.      0.99997    
    21701.      0.99997    
    21751.      0.99997    
    21801.      0.99997    
    21851.      0.99997    
    21901.      0.99997    
    21951.      0.99997    
    22001.      0.99997    
    22051.      0.99997    
    22101.      0.99997    
    22151.      0.99998    
    22201.      0.99998    
    22251.      0.99998    
    22301.      0.99998    
    22351.      0.99998    
    22401.      0.99998    
    22451.      0.99998    
    22501.      0.99998    
    22551.      0.99998    
    22601.      0.99998    
    22651.      0.99998    
    22701.      0.99998    
    22751.      0.99998    
    22801.      0.99998    
    22851.      0.99998    
    22901.      0.99998    
    22951.      0.99998    
    23001.      0.99998    
    23051.      0.99998    
    23101.      0.99998    
    23151.      0.99998    
    23201.      0.99998    
    23251.      0.99998    
    23301.      0.99998    
    23351.      0.99998    
    23401.      0.99998    
    23451.      0.99998    
    23501.      0.99998    
    23551.      0.99998    
    23601.      0.99998    
    23651.      0.99998    
    23701.      0.99998    
    23750.      0.99998    
    23800.      0.99998    
    23850.      0.99998    
    23900.      0.99998    
    23950.      0.99998    
    24000.      0.99998    
    24050.      0.99998    
    24100.      0.99998    
    24150.      0.99998    
    24200.      0.99998    
    24250.      0.99998    
    24300.      0.99998    
    24350.      0.99998    
    24400.      0.99998    
    24450.      0.99998    
    24500.      0.99998    
    24550.      0.99998    
    24600.      0.99998    
    24650.      0.99998    
    24700.      0.99998    
    24750.      0.99998    
    24800.      0.99998    
    24850.      0.99998    
    24900.      0.99998    
    24950.      0.99998    
    25000.      0.99998    